Bottle Number:0
11/17/2017 3:51:48 PM
Frequency (Hz),Impedance(Ohms),Phase(Degrees)
1000,8733.94551843,-6880.22995152
1059.254,8674.90781164,-6536.53980917
1122.018,8619.59657042,-6220.08337885
1188.502,8567.02076207,-5922.53376224
1258.925,8516.93058773,-5641.25815073
1333.521,8469.21892626,-5374.28836125
1412.538,8423.60288609,-5121.15661571
1496.236,8379.9752676,-4880.58049544
1584.893,8338.14193171,-4651.87989813
1678.804,8298.15978924,-4434.40424123
1778.279,8259.90018925,-4227.58725814
1883.649,8223.24335651,-4030.874578
1995.262,8188.1480391,-3843.79634921
2113.489,8154.53309177,-3665.47906733
2238.721,8122.22740834,-3495.91930464
2371.374,8091.16647561,-3334.68405505
2511.886,8061.23481877,-3181.22955635
2660.725,8032.49116883,-3035.37048155
2818.383,8004.78686213,-2896.64415691
2985.383,7978.07812654,-2764.94826858
3162.278,7952.27898943,-2639.87647689
3349.654,7927.35739449,-2521.07087038
3548.134,7903.20099631,-2408.03908886
3758.374,7879.80621326,-2300.67809082
3981.072,7857.05597855,-2198.78221056
4216.965,7834.85360103,-2102.14175453
4466.836,7813.21026893,-2010.43846064
4731.513,7792.02079155,-1923.47950582
5011.872,7771.27904063,-1840.90114867
5308.844,7750.91458778,-1762.47571263
5623.413,7730.8771029,-1688.06136138
5956.621,7711.11712461,-1617.40037624
6309.573,7691.60703839,-1550.38462561
6683.439,7672.41909855,-1486.8428877
7079.458,7653.43219846,-1426.47599247
7498.942,7634.55785545,-1369.15886832
7943.282,7615.91234254,-1314.55591147
8413.951,7597.41104059,-1262.60610262
8912.509,7579.05815431,-1212.99771904
9440.609,7560.89248101,-1165.78599707
10000,7542.88977196,-1120.65985857
10592.537,7525.12870876,-1077.62937103
11220.185,7507.49111551,-1036.48085088
11885.022,7490.09330282,-997.039315855
12589.254,7472.91865706,-959.261809512
13335.214,7456.06127224,-922.937878924
14125.375,7439.5181383,-888.070627926
14962.357,7423.22990366,-854.523966047
15848.932,7407.28387127,-822.228994929
16788.04,7391.73017348,-791.152860446
17782.794,7376.53662875,-761.170521955
18836.491,7361.75872611,-732.234319464
19952.623,7347.41961551,-704.373220177
21134.89,7333.50710692,-677.565405734
22387.211,7320.05401546,-651.673411649
23713.737,7307.08188533,-626.686951666
25118.864,7294.59043308,-602.628804192
26607.251,7282.50874733,-579.41961749
28183.829,7270.9763856,-557.045290557
29853.826,7259.88963548,-535.489255594
31622.777,7249.27116407,-514.718922451
33496.544,7239.11890952,-494.743585567
35481.339,7229.42661266,-475.537250783
37583.74,7220.15432314,-457.064328079
39810.717,7211.35532515,-439.358015196
42169.65,7202.94501845,-422.361663291
44668.359,7194.9223564,-406.042185352
47315.126,7187.27292489,-390.488483295
50118.723,7180.00219259,-375.599674931
53088.444,7173.06065439,-361.362211838
56234.133,7166.48312349,-347.760900995
59566.214,7160.21165099,-334.820420827
63095.734,7154.2932134,-322.464393277
66834.392,7148.57660239,-310.762071131
70794.578,7143.20931715,-299.667728235
74989.421,7138.04487763,-289.111897107
79432.823,7133.1650832,-279.183384219
84139.514,7128.49313435,-269.751947938
89125.094,7124.04214557,-260.89935509
94406.088,7119.76160056,-252.589868115
100000,7115.67980704,-244.785288565
105925.373,7111.7670629,-237.547239478
112201.845,7108.00227627,-230.787022344
118850.223,7104.40009116,-224.468182219
125892.541,7100.9904426,-218.644856434
133352.143,7097.68373396,-213.289057917
141253.754,7094.47835366,-208.406556141
149623.566,7091.40362732,-203.957408238
158489.319,7088.44644463,-199.950680436
167880.402,7085.53938688,-196.391243347
177827.941,7082.76150758,-193.240678519
188364.909,7080.03796175,-190.558131005
199526.231,7077.43222305,-188.288062558
211348.904,7074.81896288,-186.428319747
223872.114,7072.28780083,-184.907182073
237137.371,7069.84209286,-183.89230106
251188.643,7067.43936957,-183.275920538
266072.506,7065.07724923,-183.079153879
281838.293,7062.73681863,-183.323976889
298538.262,7060.43107931,-183.98369275
316227.766,7058.19855306,-185.100974165
334965.439,7055.95173205,-186.648901576
354813.389,7053.77278218,-188.645039129
375837.404,7051.62504604,-191.133504874
398107.171,7049.41207267,-194.103976156
421696.503,7047.22070681,-197.506458121
446683.592,7045.06864145,-201.441827967
473151.259,7042.90037084,-205.768636469
501187.234,7040.80261909,-210.784955673
530884.444,7038.77181247,-216.527638832
562341.325,7036.72435243,-222.738904723
595662.144,7034.60069237,-229.421296389
630957.344,7032.40170435,-236.729141694
668343.918,7030.14793705,-244.627931563
707945.784,7027.76201218,-253.058974691
749894.209,7025.27553694,-262.084417997
794328.235,7022.69225572,-271.833835431
841395.142,7020.03628784,-282.174512064
891250.938,7017.25553534,-293.293595789
944060.876,7013.98884444,-305.256201415
1000000,7010.7190844,-318.219269795
1059253.725,7007.89262214,-332.44537712
1122018.454,7004.38359442,-347.100151441
1188502.227,7000.64931309,-362.500039491
1258925.412,6997.55782282,-379.396484898
1333521.432,6993.75910954,-397.348839522
1412537.545,6989.44274363,-416.286683155
1496235.656,6982.01300425,-435.972342409
1584893.192,6978.64344427,-458.876806056
1678804.018,6973.81067841,-480.036616662
1778279.41,6969.20770986,-504.50594528
1883649.089,6961.38220237,-528.987161994
1995262.315,6955.50841414,-557.237845201
2113489.04,6948.63189233,-584.259382285
2238721.139,6943.78905544,-615.276546274
2371373.706,6935.60312865,-647.763668803
2511886.432,6927.43418691,-680.843553698
2660725.06,6915.74382404,-716.680101165
2818382.931,6905.92629047,-754.190989536
2985382.619,6892.5972536,-794.399094469
3162277.66,6881.31576091,-835.561435728
3349654.392,6867.65833393,-879.345047031
3548133.892,6851.68414578,-924.506298117
3758374.043,6833.80384477,-975.105849419
3981071.706,6815.33716698,-1025.16226631
4216965.034,6795.83587197,-1077.14965455
4466835.922,6773.70149164,-1133.28798781
4731512.59,6749.93687983,-1190.93997941
5011872.336,6721.93353187,-1252.56189875
5308844.442,6692.68626829,-1319.05300019
5623413.252,6660.51147088,-1385.00690153
5956621.435,6623.39688759,-1453.55543253
6309573.445,6586.2526736,-1526.51243417
6683439.176,6541.5814781,-1601.65410581
7079457.844,6494.3247812,-1680.09811058
7498942.093,6443.61375132,-1759.58882915
7943282.347,6385.55318219,-1843.60316028
8413951.416,6324.65767564,-1927.22826714
8912509.381,6255.45120168,-2013.72265148
9440608.763,6183.3529465,-2102.81667096
10000000,6103.9040834,-2191.12179868
10592537.252,6016.71798648,-2283.31178855
11220184.543,5923.97506205,-2373.76404841
11885022.274,5821.69126602,-2465.3425028
12589254.118,5714.35518008,-2555.00917764
13335214.322,5597.54107732,-2644.23760479
14125375.446,5475.7576168,-2729.18512015
14962356.561,5343.59313079,-2814.46593235
15848931.925,5292.9092642,-2828.76053444
16788040.181,5153.20245816,-2905.71233929
17782794.1,5005.15360916,-2976.80108082
18836490.895,4851.93418061,-3047.71458162
19952623.15,4684.89478879,-3109.98541986
21134890.398,4514.62434886,-3158.12317071
22387211.386,4343.6069386,-3201.87420338
23713737.057,4165.92410796,-3240.41681509
25118864.315,3977.39678545,-3270.2404898
26607250.598,3791.62656074,-3278.80226605
28183829.313,3612.97904376,-3285.70264285
29853826.189,3419.3332348,-3281.51432409
31622776.602,3242.92498842,-3263.48801806
33496543.916,3050.98488897,-3258.27072618
35481338.923,2859.75310632,-3199.82754815
37583740.429,2695.39801458,-3150.45858848
39810717.055,2531.6606154,-3099.24165692
42169650.343,2372.29780903,-3041.55262784
44668359.215,2216.91624954,-2980.17152579
47315125.896,2066.11315051,-2908.60471369
50118723.363,1923.83290739,-2834.35057677
53088444.423,1787.81985449,-2756.42637321
56234132.519,1658.56908454,-2674.88556767
59566214.353,1535.95455487,-2590.77435424
63095734.448,1419.32661001,-2504.44500197
66834391.757,1309.48647497,-2416.63077141
70794578.438,1205.41419766,-2326.91823195
74989420.933,1107.94743336,-2235.07127868
79432823.472,1016.17758511,-2144.54785651
84139514.165,930.22260379,-2052.08833874
89125093.813,851.28727293,-1962.01652366
94406087.629,774.703403184,-1868.94782675
